'ibeam008.ng1' 'Mar 27 2002 17:48' 'I'       4000.    1  'NEUT'   51  'RAW'
  Filename         Date            Scan       Mon    Prf  Base   #pts  Type
ibeam                                             
 15  20  40  99   0  0  0     1.5402     0.00000 0.00000   0.00000    2
 Collimation      Mosaic    Wavelength   T-Start   Incr.   H-field #Det
  1       0.20000    0.00400    0.40000
  2       0.20000    0.00400    0.40000
  3       0.00000    0.00000    0.00000
  4       0.00000    0.00000    0.00000
  5       0.60000    0.01200    1.20000
  6       0.80000    0.01600    1.60000
 Mot:    Start       Step      End
     A1         A2         A5         A6       MIN       COUNTS 
    0.20000    0.20000    0.60000    0.80000    0.05         472
    0.20400    0.20400    0.61200    0.81600    0.05         404
    0.20800    0.20800    0.62400    0.83200    0.05         491
    0.21200    0.21200    0.63600    0.84800    0.05         513
    0.21600    0.21600    0.64800    0.86400    0.03         493
    0.22000    0.22000    0.66000    0.88000    0.05         496
    0.22400    0.22400    0.67200    0.89600    0.05         560
    0.22800    0.22800    0.68400    0.91200    0.05         533
    0.23200    0.23200    0.69600    0.92800    0.03         570
    0.23600    0.23600    0.70800    0.94400    0.03         564
    0.24000    0.24000    0.72000    0.96000    0.03         590
    0.24400    0.24400    0.73200    0.97600    0.03         622
    0.24800    0.24800    0.74400    0.99200    0.03         606
    0.25200    0.25200    0.75600    1.00800    0.03         647
    0.25600    0.25600    0.76800    1.02400    0.03         659
    0.26000    0.26000    0.78000    1.04000    0.03         692
    0.26400    0.26400    0.79200    1.05600    0.03         661
    0.26800    0.26800    0.80400    1.07200    0.03         700
    0.27200    0.27200    0.81600    1.08800    0.03         760
    0.27600    0.27600    0.82800    1.10400    0.03         716
    0.28000    0.28000    0.84000    1.12000    0.03         807
    0.28400    0.28400    0.85200    1.13600    0.05         795
    0.28800    0.28800    0.86400    1.15200    0.03         761
    0.29200    0.29200    0.87600    1.16800    0.03         851
    0.29600    0.29600    0.88800    1.18400    0.03         803
    0.30000    0.30000    0.90000    1.20000    0.03         819
    0.30400    0.30400    0.91200    1.21600    0.03         871
    0.30800    0.30800    0.92400    1.23200    0.03         894
    0.31200    0.31200    0.93600    1.24800    0.03         938
    0.31600    0.31600    0.94800    1.26400    0.03         896
    0.32000    0.32000    0.96000    1.28000    0.02         944
    0.32400    0.32400    0.97200    1.29600    0.03         849
    0.32800    0.32800    0.98400    1.31200    0.03         942
    0.33200    0.33200    0.99600    1.32800    0.03         901
    0.33600    0.33600    1.00800    1.34400    0.03        1011
    0.34000    0.34000    1.02000    1.36000    0.03         948
    0.34400    0.34400    1.03200    1.37600    0.03        1053
    0.34800    0.34800    1.04400    1.39200    0.03        1060
    0.35200    0.35200    1.05600    1.40800    0.03        1072
    0.35600    0.35600    1.06800    1.42400    0.02        1027
    0.36000    0.36000    1.08000    1.44000    0.03        1128
    0.36400    0.36400    1.09200    1.45600    0.03        1087
    0.36800    0.36800    1.10400    1.47200    0.02        1062
    0.37200    0.37200    1.11600    1.48800    0.03        1122
    0.37600    0.37600    1.12800    1.50400    0.03        1146
    0.38000    0.38000    1.14000    1.52000    0.02        1098
    0.38400    0.38400    1.15200    1.53600    0.03        1193
    0.38800    0.38800    1.16400    1.55200    0.03        1225
    0.39200    0.39200    1.17600    1.56800    0.02        1289
    0.39600    0.39600    1.18800    1.58400    0.02        1183
    0.40000    0.40000    1.20000    1.60000    0.03        1273
